# Grass Mixture: 50% Dry Long, 50% Green Lawn Albedo
# From the USGS Spectral Library
0.2636  0.0064
0.2686  0.0073
0.2731  0.0038
0.2771  0.0084
0.2811  0.0057
0.2851  0.0069
0.2891  0.0107
0.2931  0.0092
0.2971  0.0086
0.3011  0.0072
0.3051  0.0144
0.3091  0.0162
0.3131  0.0169
0.3171  0.0157
0.3211  0.0170
0.3251  0.0161
0.3291  0.0165
0.3331  0.0165
0.3371  0.0206
0.3411  0.0195
0.3451  0.0179
0.3491  0.0178
0.3531  0.0217
0.3571  0.0223
0.3606  0.0218
0.3636  0.0229
0.3666  0.0231
0.3696  0.0230
0.3726  0.0228
0.3756  0.0218
0.3786  0.0242
0.3811  0.0232
0.3831  0.0237
0.3851  0.0247
0.3871  0.0253
0.3891  0.0265
0.3911  0.0278
0.3931  0.0291
0.3951  0.0295
0.3971  0.0316
0.3991  0.0326
0.4011  0.0342
0.4031  0.0360
0.4051  0.0381
0.4128  0.0459
0.4158  0.0492
0.4188  0.0527
0.4218  0.0559
0.4248  0.0595
0.4278  0.0629
0.4308  0.0655
0.4338  0.0693
0.4368  0.0720
0.4398  0.0743
0.4428  0.0771
0.4458  0.0794
0.4488  0.0834
0.4513  0.0862
0.4533  0.0875
0.4553  0.0891
0.4573  0.0895
0.4593  0.0909
0.4613  0.0925
0.4633  0.0946
0.4653  0.0953
0.4673  0.0972
0.4693  0.0979
0.4713  0.0992
0.4733  0.1005
0.4753  0.1023
0.4773  0.1028
0.4793  0.1043
0.4813  0.1048
0.4833  0.1060
0.4853  0.1075
0.4873  0.1087
0.4893  0.1091
0.4913  0.1107
0.4933  0.1113
0.4953  0.1135
0.4973  0.1142
0.4993  0.1159
0.5013  0.1169
0.5033  0.1183
0.5053  0.1201
0.5073  0.1220
0.5093  0.1231
0.5113  0.1260
0.5133  0.1281
0.5153  0.1307
0.5173  0.1333
0.5193  0.1362
0.5213  0.1393
0.5233  0.1423
0.5253  0.1457
0.5273  0.1480
0.5293  0.1503
0.5313  0.1532
0.5333  0.1553
0.5353  0.1574
0.5373  0.1591
0.5393  0.1612
0.5413  0.1615
0.5433  0.1631
0.5453  0.1634
0.5473  0.1655
0.5493  0.1653
0.5513  0.1673
0.5533  0.1671
0.5553  0.1685
0.5573  0.1681
0.5593  0.1685
0.5613  0.1694
0.5633  0.1692
0.5653  0.1696
0.5673  0.1681
0.5693  0.1683
0.5713  0.1669
0.5733  0.1663
0.5753  0.1662
0.5773  0.1652
0.5793  0.1668
0.5813  0.1653
0.5833  0.1656
0.5853  0.1652
0.5873  0.1665
0.5893  0.1667
0.5913  0.1665
0.5933  0.1666
0.5953  0.1666
0.5973  0.1664
0.5993  0.1673
0.6011  0.1678
0.6027  0.1678
0.6043  0.1690
0.6059  0.1683
0.6075  0.1688
0.6091  0.1688
0.6107  0.1683
0.6123  0.1688
0.6139  0.1693
0.6155  0.1694
0.6171  0.1687
0.6187  0.1694
0.6203  0.1705
0.6219  0.1696
0.6235  0.1700
0.6251  0.1711
0.6267  0.1711
0.6283  0.1721
0.6299  0.1717
0.6317  0.1725
0.6337  0.1730
0.6357  0.1730
0.6377  0.1737
0.6397  0.1731
0.6417  0.1739
0.6437  0.1735
0.6457  0.1742
0.6477  0.1735
0.6497  0.1742
0.6517  0.1733
0.6537  0.1742
0.6557  0.1748
0.6577  0.1750
0.6597  0.1753
0.6617  0.1749
0.6637  0.1750
0.6657  0.1759
0.6677  0.1751
0.6702  0.1755
0.6732  0.1752
0.6762  0.1765
0.6792  0.1769
0.6822  0.1782
0.6852  0.1801
0.6882  0.1812
0.6912  0.1858
0.6942  0.1909
0.6972  0.1984
0.7002  0.2082
0.7020  0.2152
0.7040  0.2220
0.7060  0.2307
0.7080  0.2370
0.7100  0.2460
0.7120  0.2539
0.7140  0.2638
0.7160  0.2721
0.7180  0.2828
0.7200  0.2928
0.7220  0.3044
0.7240  0.3156
0.7260  0.3279
0.7280  0.3403
0.7300  0.3537
0.7320  0.3665
0.7340  0.3796
0.7360  0.3925
0.7380  0.4058
0.7400  0.4170
0.7420  0.4292
0.7440  0.4407
0.7460  0.4508
0.7480  0.4595
0.7505  0.4701
0.7535  0.4803
0.7565  0.4889
0.7595  0.4962
0.7625  0.5017
0.7655  0.5051
0.7685  0.5090
0.7715  0.5115
0.7745  0.5148
0.7775  0.5163
0.7810  0.5171
0.7850  0.5183
0.7890  0.5200
0.7930  0.5220
0.7970  0.5229
0.8015  0.5233
0.8065  0.5253
0.8115  0.5258
0.8165  0.5272
0.8220  0.5283
0.8280  0.5283
0.8510  0.5327
0.8590  0.5308
0.8710  0.5303
0.8830  0.5307
0.8940  0.5332
0.9040  0.5318
0.9140  0.5310
0.9240  0.5309
0.9330  0.5302
0.9410  0.5265
0.9490  0.5213
0.9570  0.5144
0.9640  0.5111
0.9700  0.5110
0.9760  0.5102
0.9820  0.5112
0.9880  0.5107
0.9940  0.5124
1.0000  0.5147
1.0060  0.5157
1.0120  0.5165
1.0180  0.5207
1.0235  0.5221
1.0285  0.5243
1.0335  0.5259
1.0385  0.5285
1.0435  0.5293
1.0485  0.5303
1.0535  0.5309
1.0585  0.5319
1.0635  0.5323
1.0685  0.5327
1.0735  0.5316
1.0785  0.5329
1.0835  0.5341
1.0885  0.5326
1.0935  0.5323
1.0985  0.5327
1.1035  0.5297
1.1085  0.5311
1.1135  0.5291
1.1185  0.5282
1.1235  0.5262
1.1285  0.5228
1.1335  0.5164
1.1385  0.5072
1.1435  0.4965
1.1485  0.4883
1.1535  0.4813
1.1585  0.4758
1.1635  0.4722
1.1685  0.4705
1.1735  0.4678
1.1785  0.4661
1.1835  0.4651
1.1885  0.4650
1.1935  0.4644
1.1985  0.4634
1.2035  0.4637
1.2085  0.4630
1.2135  0.4639
1.2185  0.4667
1.2235  0.4668
1.2285  0.4682
1.2335  0.4696
1.2385  0.4711
1.2435  0.4728
1.2485  0.4741
1.2535  0.4760
1.2585  0.4768
1.2635  0.4773
1.2685  0.4771
1.2735  0.4767
1.2785  0.4762
1.2835  0.4760
1.2885  0.4743
1.2935  0.4726
1.2985  0.4700
1.3035  0.4673
1.3085  0.4630
1.3135  0.4587
1.3185  0.4527
1.3235  0.4463
1.3285  0.4393
1.3335  0.4317
1.3385  0.4249
1.3435  0.4168
1.3485  0.4085
1.3535  0.4038
1.3585  0.3977
1.3635  0.3911
1.3685  0.3844
1.3735  0.3748
1.3785  0.3627
1.3835  0.3462
1.3885  0.3264
1.3935  0.3041
1.3985  0.2864
1.4035  0.2677
1.4085  0.2530
1.4135  0.2421
1.4185  0.2314
1.4235  0.2245
1.4285  0.2178
1.4335  0.2145
1.4385  0.2111
1.4435  0.2081
1.4485  0.2072
1.4535  0.2072
1.4585  0.2069
1.4635  0.2091
1.4685  0.2075
1.4735  0.2106
1.4785  0.2129
1.4835  0.2168
1.4885  0.2198
1.4935  0.2237
1.4985  0.2276
1.5035  0.2312
1.5085  0.2348
1.5135  0.2388
1.5185  0.2446
1.5235  0.2480
1.5285  0.2537
1.5340  0.2572
1.5400  0.2625
1.5460  0.2669
1.5520  0.2720
1.5580  0.2765
1.5640  0.2793
1.5705  0.2832
1.5775  0.2873
1.5845  0.2920
1.5915  0.2968
1.5985  0.3010
1.6055  0.3059
1.6125  0.3093
1.6195  0.3140
1.6265  0.3167
1.6335  0.3199
1.6405  0.3217
1.6475  0.3233
1.6545  0.3254
1.6615  0.3254
1.6685  0.3264
1.6760  0.3234
1.6840  0.3205
1.6920  0.3199
1.7000  0.3184
1.7080  0.3164
1.7160  0.3096
1.7240  0.3074
1.7320  0.3019
1.7400  0.3019
1.7480  0.2992
1.7560  0.2963
1.7640  0.2913
1.7720  0.2887
1.7800  0.2873
1.7880  0.2890
1.7960  0.2864
1.8050  0.2873
1.8150  0.2881
1.8250  0.2874
1.8350  0.2873
1.8450  0.2836
1.8550  0.2744
1.8650  0.2579
1.8750  0.2288
1.8850  0.1969
1.8950  0.1632
1.9050  0.1406
1.9150  0.1257
1.9250  0.1207
1.9350  0.1211
1.9450  0.1243
1.9550  0.1275
1.9650  0.1372
1.9750  0.1418
1.9850  0.1471
1.9950  0.1527
2.0050  0.1563
2.0150  0.1615
2.0250  0.1608
2.0350  0.1611
2.0450  0.1586
2.0550  0.1592
2.0650  0.1581
2.0750  0.1595
2.0850  0.1626
2.0950  0.1611
2.1050  0.1672
2.1150  0.1704
2.1250  0.1742
2.1350  0.1767
2.1450  0.1822
2.1550  0.1823
2.1650  0.1877
2.1750  0.1895
2.1850  0.1899
2.1950  0.1925
2.2050  0.1938
2.2150  0.1959
2.2250  0.1947
2.2350  0.1896
2.2450  0.1855
2.2550  0.1763
2.2650  0.1754
2.2750  0.1687
2.2850  0.1658
2.2950  0.1629
2.3050  0.1558
2.3150  0.1534
2.3250  0.1498
2.3350  0.1471
2.3450  0.1430
2.3550  0.1404
2.3650  0.1413
2.3750  0.1394
2.3860  0.1352
2.4000  0.1315
2.4180  0.1234
2.4400  0.1134
2.4660  0.0999
2.4960  0.0904
2.5280  0.0903
2.5600  0.0936
2.5920  0.0953
2.6240  0.0953
2.6560  0.0888
2.6880  0.0725
2.7200  0.0443
2.7520  0.0154
2.7840  0.0155
2.8160  0.0097
2.8480  0.0031
2.8800  0.0100
2.9120  0.0095
2.9440  0.0085
2.9760  0.0030
