#Aerosol Name      : Silica Glass
#Name in POSEIDON  : SiO2_glass_palik
#Database          : Mullens 2024
#Wavelengths       : 0.184 - 33.33 um
#
#Chemical Formula  : SiO[2]
#Crystal or Amorph : Amorphous (glass)
#Crystal Shape     : N/A
#
#Refractive Index References:
#--------------
#Philipp in Palik (1985) (Volume 1, Section 35)
#
#ADS        : https://ui.adsabs.harvard.edu/abs/1985hocs.book.....P/abstract
#
#Paper Info :
#
#Compiled many glass references. Notes that getting the imaginary indices is difficult due to H2O's OH band messing up lab measurements. 
#
#Kramers-Kronig was utilized to compute the imaginary indices from 0.184 to 3.55 um, 6.75 to 7.63 um, real indices in gaps from 3.63 to 6.9 #um. 
# 
#Both k (taken from reflection) and k_abs (taken from transmission) were included in the txt file. When a row had both values listed, an #average of the two was taken. 
#
#I specifically iterated the Kramers-Kronig relation twice using the pyElli package (and code from Dr. Sarah Moran) to get a self consistent #set of real and imaginary indices, and offset them to match the original Palik data.
#
0.10000 1.36596 0.01101
0.12993 1.56250 0.00666
0.15986 1.66518 0.00331
0.18979 1.55851 0.00296
0.21972 1.50137 0.00282
0.24965 1.47397 0.00279
0.27958 1.46255 0.00277
0.30951 1.45283 0.00275
0.33944 1.44546 0.00273
0.36937 1.44065 0.00271
0.39930 1.43744 0.00269
0.42923 1.43401 0.00267
0.45916 1.43116 0.00265
0.48909 1.42989 0.00263
0.51902 1.42813 0.00261
0.54895 1.42602 0.00259
0.57888 1.42544 0.00257
0.60881 1.42469 0.00255
0.63874 1.42316 0.00252
0.66867 1.42245 0.00250
0.69860 1.42230 0.00248
0.72853 1.42123 0.00246
0.75846 1.42037 0.00244
0.78839 1.42039 0.00242
0.81832 1.41976 0.00240
0.84825 1.41865 0.00238
0.87818 1.41865 0.00236
0.90811 1.41851 0.00234
0.93804 1.41756 0.00232
0.96797 1.41722 0.00230
0.99790 1.41737 0.00228
1.02783 1.41657 0.00226
1.05776 1.41590 0.00224
1.08769 1.41607 0.00221
1.11762 1.41567 0.00219
1.14755 1.41479 0.00217
1.17748 1.41485 0.00215
1.20741 1.41481 0.00213
1.23734 1.41394 0.00211
1.26727 1.41364 0.00209
1.29720 1.41382 0.00207
1.32713 1.41310 0.00205
1.35706 1.41244 0.00203
1.38699 1.41262 0.00201
1.41692 1.41225 0.00199
1.44685 1.41138 0.00197
1.47678 1.41140 0.00195
1.50671 1.41137 0.00192
1.53664 1.41050 0.00191
1.56657 1.41015 0.00189
1.59650 1.41030 0.00186
1.62643 1.40958 0.00184
1.65636 1.40888 0.00182
1.68629 1.40901 0.00180
1.71622 1.40863 0.00178
1.74615 1.40772 0.00176
1.77608 1.40767 0.00174
1.80601 1.40762 0.00172
1.83594 1.40670 0.00170
1.86587 1.40628 0.00168
1.89580 1.40637 0.00166
1.92573 1.40563 0.00164
1.95566 1.40486 0.00162
1.98559 1.40493 0.00159
2.01552 1.40452 0.00157
2.04545 1.40357 0.00156
2.07538 1.40343 0.00153
2.10531 1.40334 0.00151
2.13524 1.40237 0.00149
2.16517 1.40186 0.00147
2.19510 1.40188 0.00145
2.22503 1.40108 0.00143
2.25495 1.40021 0.00141
2.28488 1.40023 0.00139
2.31481 1.39977 0.00137
2.34474 1.39876 0.00135
2.37467 1.39852 0.00133
2.40460 1.39838 0.00130
2.43453 1.39731 0.00129
2.46446 1.39665 0.00127
2.49439 1.39649 0.00124
2.52432 1.39555 0.00122
2.55425 1.39449 0.00121
2.58418 1.39433 0.00118
2.61411 1.39374 0.00116
2.64404 1.39258 0.00114
2.67397 1.39218 0.00112
2.70390 1.39193 0.00110
2.73383 1.39077 0.00108
2.76376 1.39002 0.00106
2.79369 1.38986 0.00104
2.82362 1.38895 0.00102
2.85355 1.38787 0.00100
2.88348 1.38771 0.00098
2.91341 1.38714 0.00095
2.94334 1.38598 0.00094
2.97327 1.38555 0.00092
3.00320 1.38533 0.00089
3.03313 1.38417 0.00087
3.06306 1.38340 0.00086
3.09299 1.38324 0.00083
3.12292 1.38235 0.00081
3.15285 1.38124 0.00080
3.18278 1.38108 0.00077
3.21271 1.38053 0.00075
3.24264 1.37935 0.00073
3.27257 1.37879 0.00071
3.30250 1.37844 0.00068
3.33243 1.37709 0.00067
3.36236 1.37612 0.00065
3.39229 1.37578 0.00062
3.42222 1.37472 0.00060
3.45215 1.37338 0.00059
3.48208 1.37299 0.00056
3.51201 1.37225 0.00054
3.54194 1.37084 0.00053
3.57187 1.37008 0.00050
3.60180 1.36962 0.00047
3.63173 1.36815 0.00046
3.66166 1.36704 0.00045
3.69159 1.36658 0.00042
3.72152 1.36546 0.00041
3.75145 1.36402 0.00040
3.78138 1.36358 0.00037
3.81131 1.36281 0.00035
3.84124 1.36135 0.00034
3.87117 1.36045 0.00032
3.90110 1.35983 0.00030
3.93103 1.35822 0.00028
3.96096 1.35692 0.00027
3.99089 1.35630 0.00024
4.02082 1.35503 0.00023
4.05075 1.35341 0.00022
4.08068 1.35277 0.00020
4.11061 1.35185 0.00019
4.14054 1.35023 0.00019
4.17047 1.34911 0.00017
4.20040 1.34828 0.00015
4.23033 1.34639 0.00015
4.26026 1.34476 0.00014
4.29019 1.34384 0.00014
4.32012 1.34229 0.00015
4.35005 1.34036 0.00016
4.37998 1.33939 0.00016
4.40991 1.33818 0.00016
4.43984 1.33625 0.00016
4.46977 1.33494 0.00014
4.49970 1.33401 0.00011
4.52963 1.33214 0.00008
4.55956 1.33045 0.00006
4.58949 1.32944 0.00003
4.61942 1.32782 0.00001
4.64935 1.32581 0.00000
4.67928 1.32473 0.00003
4.70921 1.32345 0.00006
4.73914 1.32144 0.00011
4.76907 1.32001 0.00028
4.79900 1.31900 0.00053
4.82893 1.31707 0.00086
4.85886 1.31530 0.00121
4.88879 1.31429 0.00161
4.91872 1.31270 0.00208
4.94865 1.31069 0.00260
4.97858 1.30957 0.00310
5.00851 1.30821 0.00361
5.03844 1.30577 0.00414
5.06837 1.30390 0.00444
5.09830 1.30246 0.00455
5.12823 1.30013 0.00460
5.15816 1.29791 0.00463
5.18809 1.29647 0.00467
5.21802 1.29448 0.00472
5.24795 1.29204 0.00478
5.27788 1.29049 0.00483
5.30781 1.28884 0.00488
5.33774 1.28640 0.00493
5.36767 1.28450 0.00494
5.39760 1.28306 0.00492
5.42753 1.28076 0.00489
5.45746 1.27852 0.00486
5.48739 1.27708 0.00481
5.51732 1.27511 0.00478
5.54725 1.27267 0.00475
5.57718 1.27060 0.00474
5.60711 1.26839 0.00474
5.63704 1.26531 0.00476
5.66697 1.26276 0.00476
5.69690 1.26069 0.00476
5.72683 1.25777 0.00477
5.75676 1.25487 0.00479
5.78669 1.25280 0.00479
5.81662 1.25023 0.00479
5.84655 1.24716 0.00481
5.87648 1.24472 0.00482
5.90641 1.24220 0.00484
5.93634 1.23852 0.00490
5.96627 1.23534 0.00494
5.99620 1.23267 0.00497
6.02613 1.22918 0.00502
6.05606 1.22565 0.00507
6.08599 1.22298 0.00508
6.11592 1.21983 0.00511
6.14585 1.21616 0.00515
6.17578 1.21329 0.00514
6.20571 1.21048 0.00513
6.23564 1.20678 0.00514
6.26557 1.20317 0.00514
6.29550 1.19967 0.00511
6.32543 1.19538 0.00510
6.35536 1.19100 0.00510
6.38529 1.18750 0.00507
6.41522 1.18354 0.00506
6.44515 1.17904 0.00506
6.47508 1.17443 0.00510
6.50501 1.16967 0.00515
6.53493 1.16402 0.00522
6.56486 1.15881 0.00528
6.59479 1.15416 0.00533
6.62472 1.14874 0.00540
6.65465 1.14315 0.00548
6.68458 1.13815 0.00559
6.71451 1.13266 0.00573
6.74444 1.12650 0.00590
6.77437 1.11987 0.00604
6.80430 1.11297 0.00619
6.83423 1.10491 0.00636
6.86416 1.09675 0.00652
6.89409 1.08842 0.00667
6.92402 1.07956 0.00689
6.95395 1.07071 0.00713
6.98388 1.06418 0.00735
7.01381 1.05708 0.00758
7.04374 1.04914 0.00783
7.07367 1.04065 0.00806
7.10360 1.03187 0.00828
7.13353 1.02181 0.00857
7.16346 1.01145 0.00892
7.19339 1.00062 0.00936
7.22332 0.98898 0.00982
7.25325 0.97706 0.01029
7.28318 0.96530 0.01073
7.31311 0.95317 0.01118
7.34304 0.94042 0.01165
7.37297 0.92865 0.01210
7.40290 0.91706 0.01261
7.43283 0.90035 0.01489
7.46276 0.88435 0.01724
7.49269 0.86956 0.01970
7.52262 0.85404 0.02219
7.55255 0.83816 0.02468
7.58248 0.82081 0.02714
7.61241 0.80165 0.02962
7.64234 0.77922 0.03211
7.67227 0.75389 0.03499
7.70220 0.72712 0.03808
7.73213 0.69260 0.04362
7.76206 0.65655 0.05148
7.79199 0.61757 0.06377
7.82192 0.57865 0.08428
7.85185 0.53976 0.10880
7.88178 0.50278 0.14339
7.91171 0.46662 0.18081
7.94164 0.43213 0.22394
7.97157 0.40350 0.27228
8.00150 0.37786 0.32328
8.03143 0.36882 0.37986
8.06136 0.36320 0.43475
8.09129 0.36449 0.48593
8.12122 0.37003 0.53229
8.15115 0.37786 0.57604
8.18108 0.39156 0.61220
8.21101 0.40370 0.64646
8.24094 0.41205 0.67683
8.27087 0.41832 0.70676
8.30080 0.42342 0.73644
8.33073 0.42699 0.76594
8.36066 0.43126 0.79543
8.39059 0.43731 0.82489
8.42052 0.43976 0.85235
8.45045 0.44004 0.87862
8.48038 0.43891 0.90733
8.51031 0.43685 0.93698
8.54024 0.43260 0.96874
8.57017 0.42896 1.00382
8.60010 0.42570 1.04099
8.63003 0.41779 1.07976
8.65996 0.40903 1.11951
8.68989 0.39877 1.16162
8.71982 0.38505 1.21391
8.74975 0.36903 1.27298
8.77968 0.35506 1.34395
8.80961 0.34137 1.41848
8.83954 0.32807 1.50057
8.86947 0.32605 1.60567
8.89940 0.33193 1.72686
8.92933 0.36825 1.86316
8.95926 0.41756 2.00561
8.98919 0.49816 2.16270
9.01912 0.62126 2.29268
9.04905 0.77566 2.40270
9.07898 0.94995 2.49114
9.10891 1.13330 2.56388
9.13884 1.33943 2.59273
9.16877 1.52775 2.58527
9.19870 1.70230 2.54970
9.22863 1.85292 2.46864
9.25856 2.00089 2.38211
9.28849 2.14963 2.29555
9.31842 2.25406 2.21137
9.34835 2.32246 2.12913
9.37828 2.39162 2.04685
9.40821 2.46066 1.96458
9.43814 2.52892 1.88234
9.46807 2.59772 1.80007
9.49800 2.66697 1.71779
9.52793 2.70694 1.63238
9.55786 2.73757 1.54593
9.58779 2.74826 1.45713
9.61772 2.75842 1.36835
9.64765 2.76811 1.27959
9.67758 2.77866 1.19080
9.70751 2.78916 1.10201
9.73744 2.79885 1.01325
9.76737 2.79582 0.94018
9.79730 2.78079 0.88189
9.82723 2.76302 0.82589
9.85716 2.74490 0.77032
9.88709 2.72761 0.71471
9.91702 2.70982 0.65912
9.94695 2.69154 0.60356
9.97688 2.67373 0.54842
10.00681 2.65424 0.49558
10.03674 2.62542 0.45420
10.06667 2.59709 0.41279
10.09660 2.56927 0.37137
10.12653 2.54063 0.32998
10.15646 2.51196 0.28859
10.18639 2.48414 0.24716
10.21632 2.45584 0.20575
10.24625 2.42703 0.16437
10.27618 2.40138 0.14479
10.30611 2.37643 0.13111
10.33604 2.35110 0.12191
10.36597 2.32623 0.11269
10.39590 2.30190 0.10345
10.42583 2.27677 0.09424
10.45576 2.25157 0.08503
10.48569 2.22723 0.07579
10.51562 2.20344 0.06772
10.54555 2.18029 0.06107
10.57548 2.16009 0.05691
10.60541 2.14059 0.05346
10.63534 2.12021 0.05004
10.66527 2.10027 0.04660
10.69520 2.08088 0.04313
10.72513 2.06073 0.03971
10.75506 2.04045 0.03628
10.78498 2.02106 0.03282
10.81491 2.00234 0.03067
10.84484 1.98450 0.03028
10.87477 1.96778 0.03029
10.90470 1.95133 0.03043
10.93463 1.93397 0.03061
10.96456 1.91703 0.03078
10.99449 1.90067 0.03091
11.02442 1.88356 0.03108
11.05435 1.86627 0.03126
11.08428 1.84991 0.03140
11.11421 1.83542 0.03212
11.14414 1.82369 0.03371
11.17407 1.81347 0.03546
11.20400 1.80372 0.03726
11.23393 1.79305 0.03912
11.26386 1.78276 0.04095
11.29379 1.77309 0.04276
11.32372 1.76269 0.04460
11.35365 1.75205 0.04658
11.38358 1.74217 0.05101
11.41351 1.73189 0.05564
11.44344 1.72097 0.06060
11.47337 1.71076 0.06553
11.50330 1.70080 0.07045
11.53323 1.68988 0.07541
11.56316 1.67932 0.08036
11.59309 1.66940 0.08527
11.62302 1.65930 0.09150
11.65295 1.64917 0.09836
11.68288 1.64092 0.10740
11.71281 1.63231 0.11647
11.74274 1.62307 0.12557
11.77267 1.61548 0.13568
11.80260 1.60865 0.14626
11.83253 1.60109 0.15716
11.86246 1.59397 0.16813
11.89239 1.58769 0.17921
11.92232 1.58476 0.19358
11.95225 1.58347 0.20954
11.98218 1.58316 0.22546
12.01211 1.58267 0.24132
12.04204 1.58178 0.25708
12.07197 1.58748 0.26978
12.10190 1.59656 0.28090
12.13183 1.60465 0.29208
12.16176 1.61305 0.30314
12.19169 1.62212 0.31393
12.22162 1.63055 0.32006
12.25155 1.63863 0.32365
12.28148 1.64769 0.32720
12.31141 1.65649 0.33072
12.34134 1.66464 0.33417
12.37127 1.67453 0.33565
12.40120 1.68541 0.33600
12.43113 1.69532 0.33641
12.46106 1.70544 0.33672
12.49099 1.71615 0.33681
12.52092 1.72406 0.33346
12.55085 1.73030 0.32804
12.58078 1.73748 0.32257
12.61071 1.74443 0.31711
12.64064 1.75067 0.31170
12.67057 1.75616 0.29971
12.70050 1.76118 0.28357
12.73043 1.76487 0.26564
12.76036 1.76876 0.24758
12.79029 1.77337 0.22948
12.82022 1.77573 0.21506
12.85015 1.77657 0.20310
12.88008 1.77693 0.19419
12.91001 1.77699 0.18553
12.93994 1.77632 0.17691
12.96987 1.77547 0.16874
12.99980 1.77449 0.16088
13.02973 1.76895 0.15540
13.05966 1.76323 0.15011
13.08959 1.75827 0.14478
13.11952 1.75274 0.13948
13.14945 1.74678 0.13420
13.17938 1.74280 0.13157
13.20931 1.73885 0.12936
13.23924 1.73430 0.12761
13.26917 1.73032 0.12582
13.29910 1.72676 0.12401
13.32903 1.72243 0.12263
13.35896 1.71826 0.12141
13.38889 1.71498 0.12054
13.41882 1.71116 0.11971
13.44875 1.70688 0.11891
13.47868 1.70349 0.11805
13.50861 1.70000 0.11720
13.53854 1.69573 0.11639
13.56847 1.69199 0.11556
13.59840 1.68872 0.11469
13.62833 1.68457 0.11388
13.65826 1.68050 0.11307
13.68819 1.67722 0.11220
13.71812 1.67342 0.11137
13.74805 1.66915 0.11056
13.77798 1.66583 0.10986
13.80791 1.66255 0.10929
13.83784 1.65876 0.10921
13.86777 1.65548 0.10910
13.89770 1.65269 0.10896
13.92763 1.64905 0.10887
13.95756 1.64543 0.10878
13.98749 1.64263 0.10864
14.01742 1.63934 0.10853
14.04735 1.63555 0.10844
14.07728 1.63258 0.10831
14.10721 1.62963 0.10818
14.13714 1.62584 0.10810
14.16707 1.62253 0.10799
14.19700 1.61974 0.10785
14.22693 1.61612 0.10776
14.25686 1.61251 0.10769
14.28679 1.60989 0.10769
14.31672 1.60704 0.10791
14.34665 1.60395 0.10838
14.37658 1.60167 0.10880
14.40651 1.59944 0.10922
14.43644 1.59635 0.10969
14.46637 1.59372 0.11013
14.49630 1.59163 0.11054
14.52623 1.58874 0.11100
14.55616 1.58578 0.11146
14.58609 1.58368 0.11187
14.61602 1.58114 0.11230
14.64595 1.57805 0.11278
14.67588 1.57574 0.11320
14.70581 1.57353 0.11361
14.73574 1.57044 0.11408
14.76567 1.56779 0.11453
14.79560 1.56570 0.11494
14.82553 1.56306 0.11552
14.85546 1.56035 0.11615
14.88539 1.55859 0.11676
14.91532 1.55640 0.11739
14.94525 1.55365 0.11806
14.97518 1.55165 0.11868
15.00511 1.54980 0.11928
15.03504 1.54704 0.11995
15.06496 1.54470 0.12059
15.09489 1.54294 0.12120
15.12482 1.54043 0.12185
15.15475 1.53775 0.12251
15.18468 1.53599 0.12311
15.21461 1.53382 0.12374
15.24454 1.53107 0.12441
15.27447 1.52904 0.12503
15.30440 1.52722 0.12564
15.33433 1.52446 0.12631
15.36426 1.52204 0.12701
15.39419 1.52014 0.12778
15.42412 1.51741 0.12873
15.45405 1.51440 0.12975
15.48398 1.51234 0.13071
15.51391 1.50990 0.13170
15.54384 1.50684 0.13272
15.57377 1.50449 0.13370
15.60370 1.50239 0.13466
15.63363 1.49933 0.13569
15.66356 1.49664 0.13669
15.69349 1.49458 0.13765
15.72342 1.49182 0.13866
15.75335 1.48879 0.13968
15.78328 1.48673 0.14064
15.81321 1.48431 0.14163
15.84314 1.48125 0.14265
15.87307 1.47888 0.14363
15.90300 1.47680 0.14459
15.93293 1.47374 0.14562
15.96286 1.47103 0.14663
15.99279 1.46898 0.14761
16.02272 1.46641 0.14889
16.05265 1.46359 0.15031
16.08258 1.46176 0.15166
16.11251 1.45961 0.15303
16.14244 1.45678 0.15445
16.17237 1.45462 0.15583
16.20230 1.45279 0.15718
16.23223 1.44998 0.15860
16.26216 1.44748 0.16000
16.29209 1.44565 0.16135
16.32202 1.44318 0.16275
16.35195 1.44035 0.16417
16.38188 1.43851 0.16552
16.41181 1.43637 0.16689
16.44174 1.43355 0.16832
16.47167 1.43136 0.16969
16.50160 1.42954 0.17104
16.53153 1.42675 0.17246
16.56146 1.42422 0.17386
16.59139 1.42239 0.17521
16.62132 1.41994 0.17661
16.65125 1.41712 0.17803
16.68118 1.41509 0.17931
16.71111 1.41280 0.18059
16.74104 1.40973 0.18189
16.77097 1.40726 0.18315
16.80090 1.40519 0.18438
16.83083 1.40217 0.18568
16.86076 1.39937 0.18696
16.89069 1.39729 0.18819
16.92062 1.39462 0.18946
16.95055 1.39155 0.19076
16.98048 1.38940 0.19200
17.01041 1.38706 0.19325
17.04034 1.38399 0.19455
17.07027 1.38151 0.19581
17.10020 1.37943 0.19704
17.13013 1.37644 0.19833
17.16006 1.37361 0.19962
17.18999 1.37154 0.20085
17.21992 1.36881 0.20212
17.24985 1.36561 0.20343
17.27978 1.36295 0.20468
17.30971 1.36013 0.20594
17.33964 1.35654 0.20726
17.36957 1.35351 0.20854
17.39950 1.35092 0.20978
17.42943 1.34744 0.21110
17.45936 1.34407 0.21240
17.48929 1.34147 0.21364
17.51922 1.33833 0.21493
17.54915 1.33474 0.21625
17.57908 1.33203 0.21750
17.60901 1.32923 0.21876
17.63894 1.32564 0.22009
17.66887 1.32259 0.22136
17.69880 1.31999 0.22261
17.72873 1.31654 0.22392
17.75866 1.31314 0.22523
17.78859 1.31055 0.22647
17.81852 1.30743 0.22775
17.84845 1.30384 0.22908
17.87838 1.29998 0.23059
17.90831 1.29585 0.23216
17.93824 1.29072 0.23383
17.96817 1.28611 0.23546
17.99810 1.28198 0.23706
18.02803 1.27701 0.23872
18.05796 1.27206 0.24038
18.08789 1.26793 0.24198
18.11782 1.26330 0.24361
18.14775 1.25817 0.24528
18.17768 1.25388 0.24689
18.20761 1.24959 0.24850
18.23754 1.24446 0.25017
18.26747 1.23983 0.25181
18.29740 1.23570 0.25340
18.32733 1.23075 0.25506
18.35726 1.22577 0.25672
18.38719 1.22165 0.25832
18.41712 1.21704 0.25995
18.44705 1.21191 0.26163
18.47698 1.20759 0.26324
18.50691 1.20330 0.26492
18.53684 1.19798 0.26717
18.56677 1.19308 0.26952
18.59670 1.18865 0.27198
18.62663 1.18344 0.27451
18.65656 1.17814 0.27705
18.68649 1.17371 0.27952
18.71642 1.16883 0.28202
18.74635 1.16341 0.28457
18.77628 1.15877 0.28705
18.80621 1.15423 0.28952
18.83614 1.14881 0.29207
18.86607 1.14383 0.29458
18.89600 1.13941 0.29705
18.92593 1.13421 0.29958
18.95586 1.12837 0.30236
18.98579 1.11878 0.30725
19.01572 1.10761 0.31272
19.04565 1.09433 0.31895
19.07558 1.08181 0.32513
19.10551 1.06944 0.33129
19.13544 1.05616 0.33753
19.16537 1.04330 0.34373
19.19530 1.03102 0.34988
19.22523 1.01794 0.35819
19.25516 1.00466 0.36746
19.28509 0.99221 0.37973
19.31502 0.97936 0.39203
19.34494 0.96592 0.40437
19.37487 0.95321 0.41666
19.40480 0.94071 0.42893
19.43473 0.92727 0.44128
19.46466 0.91422 0.45359
19.49459 0.90177 0.46585
19.52452 0.88861 0.47818
19.55445 0.87522 0.49052
19.58438 0.86277 0.50279
19.61431 0.84856 0.51853
19.64424 0.83146 0.53992
19.67417 0.81465 0.56232
19.70410 0.79791 0.58513
19.73403 0.78021 0.60802
19.76396 0.76288 0.63088
19.79389 0.74618 0.65369
19.82382 0.72878 0.67655
19.85375 0.71111 0.69944
19.88368 0.69441 0.72225
19.91361 0.67735 0.74509
19.94354 0.65965 0.76798
19.97347 0.64308 0.79124
20.00340 0.62718 0.81482
20.03333 0.62055 0.84827
20.06326 0.61427 0.88170
20.09319 0.60864 0.91507
20.12312 0.60234 0.94850
20.15305 0.59572 0.98196
20.18298 0.59009 1.01533
20.21291 0.58413 1.04872
20.24284 0.57751 1.08218
20.27277 0.57154 1.11558
20.30270 0.56591 1.14895
20.33263 0.55930 1.18240
20.36256 0.55299 1.21583
20.39249 0.54736 1.24920
20.42242 0.55143 1.28704
20.45235 0.56073 1.32729
20.48228 0.57355 1.36853
20.51221 0.58614 1.40982
20.54214 0.59804 1.45118
20.57207 0.61057 1.49248
20.60200 0.62347 1.53375
20.63193 0.63540 1.57510
20.66186 0.64760 1.61643
20.69179 0.66049 1.65769
20.72172 0.67277 1.69902
20.75165 0.68466 1.74037
20.78158 0.69751 1.78164
20.81151 0.71295 1.82393
20.84144 0.73483 1.86881
20.87137 0.76447 1.91616
20.90130 0.79902 1.96507
20.93123 0.83262 2.01406
20.96116 0.86645 2.06304
20.99109 0.90100 2.11195
21.02102 0.93600 2.15993
21.05095 0.97131 2.20728
21.08088 1.03256 2.23112
21.11081 1.09552 2.25320
21.14074 1.15774 2.27535
21.17067 1.22055 2.29744
21.20060 1.28377 2.31950
21.23053 1.34607 2.34164
21.26046 1.40750 2.36050
21.29039 1.46652 2.36934
21.32032 1.52213 2.36936
21.35025 1.57525 2.36288
21.38018 1.62926 2.35631
21.41011 1.68314 2.34976
21.44004 1.73625 2.34328
21.46997 1.78993 2.33675
21.49990 1.84404 2.33017
21.52983 1.89726 2.32368
21.55976 1.95059 2.31718
21.58969 2.00470 2.31061
21.61962 2.05826 2.30408
21.64955 2.11137 2.29760
21.67948 2.16537 2.29104
21.70941 2.21736 2.28318
21.73934 2.26138 2.27047
21.76927 2.29217 2.24827
21.79920 2.31165 2.21797
21.82913 2.33027 2.18775
21.85906 2.34895 2.15753
21.88899 2.36843 2.12723
21.91892 2.38739 2.09698
21.94885 2.40587 2.06677
21.97878 2.42521 2.03649
22.00871 2.44451 2.00620
22.03864 2.46299 1.97600
22.06857 2.48199 1.94574
22.09850 2.50147 1.91544
22.12843 2.52012 1.88522
22.15836 2.53877 1.85500
22.18829 2.55826 1.82470
22.21822 2.57724 1.79445
22.24815 2.59572 1.76424
22.27808 2.61504 1.73396
22.30801 2.63436 1.70367
22.33794 2.65284 1.67346
22.36787 2.67182 1.64321
22.39780 2.69130 1.61291
22.42773 2.70996 1.58269
22.45766 2.72860 1.55247
22.48759 2.74808 1.52217
22.51752 2.76709 1.49191
22.54745 2.78557 1.46171
22.57738 2.80486 1.43143
22.60731 2.82421 1.40114
22.63724 2.84269 1.37093
22.66717 2.86164 1.34068
22.69710 2.88112 1.31038
22.72703 2.89255 1.28567
22.75696 2.90072 1.26339
22.78689 2.90056 1.24802
22.81682 2.89993 1.23270
22.84675 2.89877 1.21743
22.87668 2.89838 1.20209
22.90661 2.89810 1.18673
22.93654 2.89694 1.17146
22.96647 2.89621 1.15615
22.99640 2.89604 1.14078
23.02633 2.89511 1.12549
23.05626 2.89404 1.11021
23.08619 2.89387 1.09484
23.11612 2.89327 1.07952
23.14605 2.89211 1.06425
23.17598 2.89170 1.04890
23.20591 2.89144 1.03354
23.23584 2.89028 1.01828
23.26577 2.88953 1.00297
23.29570 2.88936 0.98760
23.32563 2.88844 0.97230
23.35556 2.88735 0.95703
23.38549 2.88718 0.94166
23.41542 2.88661 0.92633
23.44535 2.88545 0.91106
23.47528 2.88501 0.89572
23.50521 2.88478 0.88036
23.53514 2.88361 0.86509
23.56507 2.88284 0.84978
23.59499 2.88267 0.83441
23.62492 2.88178 0.81912
23.65485 2.88067 0.80385
23.68478 2.88050 0.78848
23.71471 2.87995 0.77315
23.74464 2.87878 0.75788
23.77457 2.87833 0.74254
23.80450 2.87799 0.72740
23.83443 2.87363 0.71796
23.86436 2.86946 0.70881
23.89429 2.86560 0.70016
23.92422 2.86105 0.69158
23.95415 2.85623 0.68303
23.98408 2.85237 0.67439
24.01401 2.84816 0.66577
24.04394 2.84331 0.65723
24.07387 2.83914 0.64861
24.10380 2.83527 0.63996
24.13373 2.83042 0.63142
24.16366 2.82591 0.62284
24.19359 2.82206 0.61419
24.22352 2.81753 0.60561
24.25345 2.81268 0.59706
24.28338 2.80883 0.58841
24.31331 2.80464 0.57980
24.34324 2.79979 0.57125
24.37317 2.79560 0.56264
24.40310 2.79174 0.55399
24.43303 2.78690 0.54544
24.46296 2.78237 0.53686
24.49289 2.77851 0.52821
24.52282 2.77401 0.51963
24.55275 2.76916 0.51109
24.58268 2.76528 0.50244
24.61261 2.76112 0.49382
24.64254 2.75627 0.48528
24.67247 2.75205 0.47667
24.70240 2.74819 0.46802
24.73233 2.74338 0.45947
24.76226 2.73882 0.45089
24.79219 2.73496 0.44224
24.82212 2.73049 0.43366
24.85205 2.72563 0.42511
24.88198 2.72173 0.41647
24.91191 2.71760 0.40785
24.94184 2.71274 0.39930
24.97177 2.70853 0.39091
25.00170 2.70473 0.38260
25.03163 2.70063 0.37882
25.06156 2.69677 0.37528
25.09149 2.69365 0.37167
25.12142 2.68993 0.36812
25.15135 2.68581 0.36461
25.18128 2.68261 0.36100
25.21121 2.67923 0.35742
25.24114 2.67511 0.35391
25.27107 2.67157 0.35034
25.30100 2.66845 0.34672
25.33093 2.66441 0.34321
25.36086 2.66054 0.33968
25.39079 2.65741 0.33606
25.42072 2.65371 0.33251
25.45065 2.64959 0.32900
25.48058 2.64637 0.32540
25.51051 2.64302 0.32181
25.54044 2.63889 0.31830
25.57037 2.63533 0.31474
25.60030 2.63221 0.31112
25.63023 2.62820 0.30760
25.66016 2.62430 0.30407
25.69009 2.62117 0.30046
25.72002 2.61750 0.29690
25.74995 2.61338 0.29340
25.77988 2.61013 0.28980
25.80981 2.60680 0.28620
25.83974 2.60268 0.28270
25.86967 2.59910 0.27913
25.89960 2.59597 0.27552
25.92953 2.59198 0.27200
25.95946 2.58806 0.26847
25.98939 2.58493 0.26485
26.01932 2.58128 0.26130
26.04925 2.57716 0.25779
26.07918 2.57389 0.25419
26.10911 2.57059 0.25060
26.13904 2.56646 0.24709
26.16897 2.56286 0.24353
26.19890 2.55973 0.23991
26.22883 2.55577 0.23639
26.25876 2.55182 0.23287
26.28869 2.54869 0.22925
26.31862 2.54507 0.22569
26.34855 2.54095 0.22219
26.37848 2.53765 0.21859
26.40841 2.53437 0.21499
26.43834 2.53025 0.21149
26.46827 2.52662 0.20793
26.49820 2.52349 0.20431
26.52813 2.51955 0.20078
26.55806 2.51558 0.19726
26.58799 2.51245 0.19365
26.61792 2.50885 0.19008
26.64785 2.50473 0.18658
26.67778 2.50211 0.18431
26.70771 2.49976 0.18246
26.73764 2.49691 0.18140
26.76757 2.49453 0.18029
26.79750 2.49268 0.17912
26.82743 2.49003 0.17804
26.85736 2.48731 0.17697
26.88729 2.48546 0.17579
26.91722 2.48315 0.17467
26.94715 2.48030 0.17361
26.97708 2.47824 0.17246
27.00701 2.47627 0.17130
27.03694 2.47342 0.17025
27.06687 2.47102 0.16914
27.09680 2.46917 0.16796
27.12673 2.46655 0.16688
27.15666 2.46380 0.16581
27.18659 2.46195 0.16464
27.21652 2.45967 0.16351
27.24645 2.45682 0.16246
27.27638 2.45473 0.16131
27.30631 2.45279 0.16015
27.33624 2.44994 0.15909
27.36617 2.44751 0.15798
27.39610 2.44566 0.15681
27.42603 2.44306 0.15572
27.45596 2.44029 0.15466
27.48589 2.43844 0.15348
27.51582 2.43618 0.15235
27.54575 2.43333 0.15130
27.57568 2.43122 0.15015
27.60561 2.42930 0.14899
27.63554 2.42645 0.14793
27.66547 2.42400 0.14683
27.69540 2.42215 0.14565
27.72533 2.41958 0.14456
27.75526 2.41678 0.14350
27.78519 2.41493 0.14233
27.81512 2.41270 0.14120
27.84505 2.40985 0.14014
27.87497 2.40771 0.13900
27.90490 2.40582 0.13783
27.93483 2.40297 0.13677
27.96476 2.40049 0.13567
27.99469 2.39864 0.13450
28.02462 2.39609 0.13341
28.05455 2.39327 0.13235
28.08448 2.39142 0.13117
28.11441 2.38921 0.13004
28.14434 2.38636 0.12898
28.17427 2.38420 0.12784
28.20420 2.38233 0.12667
28.23413 2.37948 0.12561
28.26406 2.37698 0.12452
28.29399 2.37513 0.12334
28.32392 2.37260 0.12225
28.35385 2.36976 0.12119
28.38378 2.36791 0.12002
28.41371 2.36572 0.11888
28.44364 2.36287 0.11782
28.47357 2.36069 0.11669
28.50350 2.35884 0.11551
28.53343 2.35600 0.11446
28.56336 2.35367 0.11349
28.59329 2.35245 0.11270
28.62322 2.35077 0.11212
28.65315 2.34886 0.11164
28.68308 2.34792 0.11104
28.71301 2.34669 0.11048
28.74294 2.34478 0.11001
28.77287 2.34349 0.10945
28.80280 2.34258 0.10885
28.83273 2.34069 0.10837
28.86266 2.33907 0.10786
28.89259 2.33815 0.10726
28.92252 2.33661 0.10674
28.95245 2.33469 0.10626
28.98238 2.33373 0.10567
29.01231 2.33253 0.10510
29.04224 2.33061 0.10463
29.07217 2.32931 0.10407
29.10210 2.32839 0.10347
29.13203 2.32653 0.10299
29.16196 2.32488 0.10248
29.19189 2.32396 0.10188
29.22182 2.32245 0.10136
29.25175 2.32053 0.10088
29.28168 2.31954 0.10029
29.31161 2.31836 0.09972
29.34154 2.31645 0.09925
29.37147 2.31512 0.09870
29.40140 2.31420 0.09810
29.43133 2.31236 0.09761
29.46126 2.31069 0.09711
29.49119 2.30978 0.09650
29.52112 2.30828 0.09598
29.55105 2.30636 0.09550
29.58098 2.30535 0.09491
29.61091 2.30420 0.09434
29.64084 2.30228 0.09387
29.67077 2.30093 0.09332
29.70070 2.30001 0.09272
29.73063 2.29820 0.09223
29.76056 2.29650 0.09173
29.79049 2.29559 0.09113
29.82042 2.29412 0.09060
29.85035 2.29220 0.09012
29.88028 2.29116 0.08954
29.91021 2.29003 0.08896
29.94014 2.28812 0.08849
29.97007 2.28674 0.08794
30.00000 2.28582 0.08734
